Wavenumber,Intensity
650.4205,2.389751
652.2841,2.951549
654.1478,2.707831
656.0115,2.351706
657.8751,2.349921
659.7388,2.804057
661.6025,3.387326
663.4661,3.123291
665.3298,2.628892
667.1935,2.678386
669.0571,2.840597
670.9208,3.010122
672.7845,3.074366
674.6481,2.634421
676.5118,2.528669
678.3755,2.798650
680.2392,2.852304
682.1028,2.645320
683.9665,2.812398
685.8302,2.881487
687.6938,2.946145
689.5575,2.912986
691.4212,2.767381
693.2848,2.571388
695.1485,2.571279
697.0122,2.494032
698.8758,2.403810
700.7395,2.634004
702.6032,2.691046
704.4669,2.636027
706.3305,2.609174
708.1942,2.636111
710.0579,2.736056
711.9215,2.720041
713.7852,2.840192
715.6489,3.061177
717.5125,3.044095
719.3762,2.890307
721.2399,3.051606
723.1035,3.101081
724.9672,3.070828
726.8309,2.987585
728.6945,2.953377
730.5582,3.131404
732.4219,3.294618
734.2856,3.071170
736.1492,2.910507
738.0129,3.038340
739.8766,3.300810
741.7402,3.256572
743.6039,3.121719
745.4676,3.209175
747.3312,3.238210
749.1949,3.183551
751.0586,3.283807
752.9222,3.329082
754.7859,3.493376
756.6496,3.680224
758.5132,3.508559
760.3769,3.310568
762.2406,3.301348
764.1043,3.247525
765.9679,3.298843
767.8316,3.470094
769.6953,3.475479
771.5589,3.336663
773.4226,3.529024
775.2863,3.818945
777.1499,3.873176
779.0136,3.731233
780.8773,3.631754
782.7409,3.606589
784.6046,3.486948
786.4683,3.316096
788.3320,3.286096
790.1956,3.350529
792.0593,3.372171
793.9230,3.281446
795.7866,3.261432
797.6503,3.279267
799.5140,3.216108
801.3776,2.971034
803.2413,2.699905
805.1050,2.658691
806.9686,2.783346
808.8323,2.686111
810.6960,2.501402
812.5596,2.502659
814.4233,2.710184
816.2870,3.018420
818.1507,3.096504
820.0143,3.012411
821.8780,3.021615
823.7417,3.008645
825.6053,3.102121
827.4690,3.276966
829.3327,3.291112
831.1963,3.193965
833.0600,3.221804
834.9237,3.282553
836.7873,3.353839
838.6510,3.405196
840.5147,3.517863
842.3784,3.634313
844.2420,3.713872
846.1057,3.714228
847.9694,3.738113
849.8330,3.862716
851.6967,3.910287
853.5604,3.937016
855.4240,4.001356
857.2877,4.032397
859.1514,4.095660
861.0150,4.127647
862.8787,4.095371
864.7424,4.138326
866.6060,4.221268
868.4697,4.212249
870.3334,4.248509
872.1971,4.229681
874.0607,4.200327
875.9244,4.274747
877.7881,4.317997
879.6517,4.324043
881.5154,4.414088
883.3791,4.525763
885.2427,4.609283
887.1064,4.653248
888.9701,4.694213
890.8337,4.721152
892.6974,4.683470
894.5611,4.657055
896.4247,4.672988
898.2884,4.666171
900.1521,4.648109
902.0158,4.658266
903.8794,4.615316
905.7431,4.543580
907.6068,4.545833
909.4704,4.565967
911.3341,4.575743
913.1978,4.502004
915.0614,4.381781
916.9251,4.349515
918.7888,4.375601
920.6524,4.330372
922.5161,4.232690
924.3798,4.166849
926.2435,4.181617
928.1071,4.240993
929.9708,4.259731
931.8345,4.205498
933.6981,4.164601
935.5618,4.209752
937.4255,4.270504
939.2891,4.276431
941.1528,4.299806
943.0165,4.336174
944.8801,4.374410
946.7438,4.431145
948.6075,4.533634
950.4711,4.682670
952.3348,4.774828
954.1985,4.844474
956.0622,4.944368
957.9258,4.996242
959.7895,5.042138
961.6532,5.180486
963.5168,5.337125
965.3805,5.399600
967.2442,5.433311
969.1078,5.500460
970.9715,5.575589
972.8352,5.669187
974.6988,5.760744
976.5625,5.836892
978.4262,5.889938
980.2899,5.926147
982.1535,5.999903
984.0172,6.089469
985.8809,6.135762
987.7445,6.175884
989.6082,6.246294
991.4719,6.333967
993.3355,6.434671
995.1992,6.531665
997.0629,6.634534
998.9265,6.719790
1000.7902,6.820766
1002.6539,6.957908
1004.5175,7.085840
1006.3812,7.220936
1008.2449,7.297330
1010.1086,7.324668
1011.9722,7.398906
1013.8359,7.469129
1015.6996,7.533997
1017.5632,7.654708
1019.4269,7.766722
1021.2906,7.834395
1023.1542,7.957362
1025.0179,8.170394
1026.8816,8.418836
1028.7452,8.645411
1030.6089,8.868461
1032.4726,9.129450
1034.3362,9.375310
1036.1999,9.608470
1038.0636,9.849957
1039.9273,10.060670
1041.7909,10.229249
1043.6546,10.328176
1045.5183,10.365753
1047.3819,10.365900
1049.2456,10.342997
1051.1093,10.280028
1052.9729,10.135169
1054.8366,9.983516
1056.7003,9.851890
1058.5639,9.694980
1060.4276,9.618121
1062.2913,9.658369
1064.1550,9.757701
1066.0186,9.868715
1067.8823,9.940627
1069.7460,10.019633
1071.6096,10.112928
1073.4733,10.171579
1075.3370,10.247469
1077.2006,10.344178
1079.0643,10.452494
1080.9280,10.559394
1082.7916,10.631891
1084.6553,10.696756
1086.5190,10.784108
1088.3826,10.891426
1090.2463,10.954274
1092.1100,10.964784
1093.9737,10.997841
1095.8373,11.048101
1097.7010,11.079250
1099.5647,11.077890
1101.4283,11.050970
1103.2920,11.014875
1105.1557,10.939562
1107.0193,10.848048
1108.8830,10.775359
1110.7467,10.710357
1112.6103,10.698543
1114.4740,10.780451
1116.3377,10.917366
1118.2014,11.068063
1120.0650,11.241344
1121.9287,11.395521
1123.7924,11.494002
1125.6560,11.593931
1127.5197,11.703382
1129.3834,11.769204
1131.2470,11.812781
1133.1107,11.863063
1134.9744,11.880039
1136.8380,11.876390
1138.7017,11.848503
1140.5654,11.796524
1142.4290,11.728029
1144.2927,11.609749
1146.1564,11.425383
1148.0201,11.194464
1149.8837,10.967877
1151.7474,10.670939
1153.6111,10.194766
1155.4747,9.607507
1157.3384,9.093253
1159.2021,8.812101
1161.0657,8.901970
1162.9294,9.293031
1164.7931,9.708864
1166.6567,9.994630
1168.5204,10.133329
1170.3841,10.143143
1172.2477,10.091406
1174.1114,9.974751
1175.9751,9.817270
1177.8388,9.698993
1179.7024,9.589496
1181.5661,9.428080
1183.4298,9.269342
1185.2934,9.165157
1187.1571,9.079270
1189.0208,8.963727
1190.8844,8.843397
1192.7481,8.778269
1194.6118,8.732607
1196.4754,8.668455
1198.3391,8.623084
1200.2028,8.620331
1202.0665,8.646817
1203.9301,8.680936
1205.7938,8.692669
1207.6575,8.718706
1209.5211,8.760898
1211.3848,8.782816
1213.2485,8.872885
1215.1121,8.973083
1216.9758,8.977432
1218.8395,8.999270
1220.7031,9.003946
1222.5668,8.957516
1224.4305,8.900683
1226.2941,8.756117
1228.1578,8.545137
1230.0215,8.306505
1231.8852,8.074803
1233.7488,7.844008
1235.6125,7.613921
1237.4762,7.395175
1239.3398,7.158053
1241.2035,6.965954
1243.0672,6.829803
1244.9308,6.646619
1246.7945,6.452826
1248.6582,6.313108
1250.5218,6.193603
1252.3855,6.043781
1254.2492,5.899177
1256.1129,5.779109
1257.9765,5.606172
1259.8402,5.405269
1261.7039,5.246962
1263.5675,5.090670
1265.4312,4.914269
1267.2949,4.768949
1269.1585,4.670430
1271.0222,4.594728
1272.8859,4.510694
1274.7495,4.453067
1276.6132,4.407565
1278.4769,4.342835
1280.3405,4.286466
1282.2042,4.264352
1284.0679,4.256977
1285.9316,4.278307
1287.7952,4.280697
1289.6589,4.246674
1291.5226,4.230960
1293.3862,4.220902
1295.2499,4.193226
1297.1136,4.129369
1298.9772,4.094463
1300.8409,4.082715
1302.7046,4.084359
1304.5682,4.095766
1306.4319,4.051311
1308.2956,3.980444
1310.1592,3.918891
1312.0229,3.904036
1313.8866,3.895361
1315.7503,3.863235
1317.6139,3.854842
1319.4776,3.852374
1321.3413,3.816090
1323.2049,3.780455
1325.0686,3.741825
1326.9323,3.716034
1328.7959,3.708625
1330.6596,3.645635
1332.5233,3.628725
1334.3869,3.676268
1336.2506,3.682915
1338.1143,3.652798
1339.9780,3.598715
1341.8416,3.549753
1343.7053,3.530091
1345.5690,3.500654
1347.4326,3.478515
1349.2963,3.441010
1351.1600,3.421317
1353.0236,3.437744
1354.8873,3.416634
1356.7510,3.371155
1358.6146,3.337199
1360.4783,3.298922
1362.3420,3.265136
1364.2056,3.242257
1366.0693,3.215541
1367.9330,3.172897
1369.7967,3.148599
1371.6603,3.126102
1373.5240,3.105714
1375.3877,3.091799
1377.2513,3.070233
1379.1150,3.035610
1380.9787,3.025312
1382.8423,3.055916
1384.7060,3.035741
1386.5697,3.003174
1388.4333,3.005742
1390.2970,3.020317
1392.1607,3.048799
1394.0244,3.021240
1395.8880,2.993453
1397.7517,2.992725
1399.6154,3.015460
1401.4790,3.065982
1403.3427,3.099179
1405.2064,3.104693
1407.0700,3.143051
1408.9337,3.208546
1410.7974,3.191850
1412.6610,3.152408
1414.5247,3.197488
1416.3884,3.236309
1418.2520,3.184166
1420.1157,3.129420
1421.9794,3.123094
1423.8431,3.116377
1425.7067,3.095068
1427.5704,3.074875
1429.4341,3.081534
1431.2977,3.073872
1433.1614,3.057049
1435.0251,3.061825
1436.8887,3.039917
1438.7524,3.026898
1440.6161,3.025739
1442.4797,3.007870
1444.3434,3.048607
1446.2071,3.092782
1448.0707,3.058323
1449.9344,3.046937
1451.7981,3.094455
1453.6618,3.182353
1455.5254,3.177486
1457.3891,3.118205
1459.2528,3.203442
1461.1164,3.252890
1462.9801,3.200642
1464.8438,3.159977
1466.7074,3.193244
1468.5711,3.234435
1470.4348,3.312288
1472.2984,3.415440
1474.1621,3.409661
1476.0258,3.402203
1477.8895,3.407288
1479.7531,3.351951
1481.6168,3.318421
1483.4805,3.403049
1485.3441,3.471164
1487.2078,3.440291
1489.0715,3.461845
1490.9351,3.566570
1492.7988,3.642601
1494.6625,3.673795
1496.5261,3.728932
1498.3898,3.773156
1500.2535,3.813962
1502.1171,3.881274
1503.9808,3.929713
1505.8445,3.967355
1507.7082,4.049641
1509.5718,4.053515
1511.4355,4.024278
1513.2992,4.061606
1515.1628,4.101762
1517.0265,4.164637
1518.8902,4.263873
1520.7538,4.330993
1522.6175,4.345566
1524.4812,4.354196
1526.3448,4.356291
1528.2085,4.324922
1530.0722,4.347880
1531.9359,4.409081
1533.7995,4.480542
1535.6632,4.574843
1537.5269,4.626857
1539.3905,4.711414
1541.2542,4.791471
1543.1179,4.767836
1544.9815,4.740626
1546.8452,4.695184
1548.7089,4.673869
1550.5725,4.709903
1552.4362,4.736059
1554.2999,4.766106
1556.1635,4.880902
1558.0272,4.885657
1559.8909,4.810291
1561.7546,4.715316
1563.6182,4.605499
1565.4819,4.513640
1567.3456,4.450050
1569.2092,4.322091
1571.0729,4.191290
1572.9366,4.145977
1574.8002,4.080959
1576.6639,3.948540
1578.5276,3.838621
1580.3912,3.725305
1582.2549,3.633867
1584.1186,3.497695
1585.9822,3.356358
1587.8459,3.254043
1589.7096,3.218013
1591.5733,3.196291
1593.4369,3.124711
1595.3006,3.037634
1597.1643,2.991855
1599.0279,2.946236
1600.8916,2.879901
1602.7553,2.784240
1604.6189,2.794529
1606.4826,2.855953
1608.3463,2.840983
1610.2099,2.761089
1612.0736,2.706830
1613.9373,2.638060
1615.8010,2.576222
1617.6646,2.595403
1619.5283,2.631464
1621.3920,2.624003
1623.2556,2.611319
1625.1193,2.631935
1626.9830,2.656538
1628.8466,2.653248
1630.7103,2.679121
1632.5740,2.641644
1634.4376,2.574557
1636.3013,2.562659
1638.1650,2.667229
1640.0286,2.720893
1641.8923,2.725985
1643.7560,2.734881
1645.6197,2.766017
1647.4833,2.740654
1649.3470,2.755718
1651.2107,2.764541
1653.0743,2.717434
1654.9380,2.713207
1656.8017,2.751183
1658.6653,2.782095
1660.5290,2.750013
1662.3927,2.715022
1664.2563,2.763730
1666.1200,2.771914
1667.9837,2.745111
1669.8474,2.790650
1671.7110,2.828694
1673.5747,2.779245
1675.4384,2.723771
1677.3020,2.739609
1679.1657,2.753455
1681.0294,2.776728
1682.8930,2.791914
1684.7567,2.692399
1686.6204,2.706053
1688.4840,2.764231
1690.3477,2.823876
1692.2114,2.861460
1694.0750,2.922018
1695.9387,2.991409
1697.8024,3.044692
1699.6661,3.008593
1701.5297,3.041287
1703.3934,3.084206
1705.2571,3.096095
1707.1207,3.086924
1708.9844,3.086963
1710.8481,3.110082
1712.7117,3.203537
1714.5754,3.265321
1716.4391,3.187908
1718.3027,3.191619
1720.1664,3.245483
1722.0301,3.238484
1723.8937,3.264730
1725.7574,3.273899
1727.6211,3.282576
1729.4848,3.343880
1731.3484,3.397384
1733.2121,3.351584
1735.0758,3.393330
1736.9394,3.456159
1738.8031,3.434923
1740.6668,3.397575
1742.5304,3.414285
1744.3941,3.423775
1746.2578,3.438682
1748.1214,3.451920
1749.9851,3.445559
1751.8488,3.414736
1753.7125,3.434010
1755.5761,3.460490
1757.4398,3.485985
1759.3035,3.473767
1761.1671,3.415946
1763.0308,3.386260
1764.8945,3.405604
1766.7581,3.435884
1768.6218,3.415952
1770.4855,3.351925
1772.3491,3.289724
1774.2128,3.290452
1776.0765,3.295600
1777.9401,3.289185
1779.8038,3.248924
1781.6675,3.231637
1783.5312,3.248051
1785.3948,3.203865
1787.2585,3.202903
1789.1222,3.209131
1790.9858,3.149224
1792.8495,3.098558
1794.7132,3.149690
1796.5768,3.168876
1798.4405,3.147998
1800.3042,3.122457
1802.1678,3.120728
1804.0315,3.137951
1805.8952,3.163187
1807.7589,3.145489
1809.6225,3.167047
1811.4862,3.194108
1813.3499,3.200614
1815.2135,3.246860
1817.0772,3.274035
1818.9409,3.251619
1820.8045,3.299778
1822.6682,3.346389
1824.5319,3.397726
1826.3955,3.475826
1828.2592,3.507896
1830.1229,3.537215
1831.9865,3.593442
1833.8502,3.601719
1835.7139,3.604384
1837.5776,3.612129
1839.4412,3.614694
1841.3049,3.622205
1843.1686,3.650388
1845.0322,3.637473
1846.8959,3.602532
1848.7596,3.559010
1850.6232,3.528483
1852.4869,3.500639
1854.3506,3.465316
1856.2142,3.402151
1858.0779,3.364575
1859.9416,3.347738
1861.8052,3.325669
1863.6689,3.323201
1865.5326,3.344923
1867.3963,3.321402
1869.2599,3.297111
1871.1236,3.311647
1872.9873,3.351995
1874.8509,3.378386
1876.7146,3.404615
1878.5783,3.385883
1880.4419,3.372239
1882.3056,3.399741
1884.1693,3.446491
1886.0329,3.485145
1887.8966,3.533738
1889.7603,3.537396
1891.6240,3.561636
1893.4876,3.607663
1895.3513,3.655303
1897.2150,3.691830
1899.0786,3.716808
1900.9423,3.741402
1902.8060,3.797058
1904.6696,3.862219
1906.5333,3.937863
1908.3970,3.983851
1910.2606,4.032188
1912.1243,4.034709
1913.9880,4.069956
1915.8516,4.124892
1917.7153,4.187746
1919.5790,4.192317
1921.4427,4.179788
1923.3063,4.199434
1925.1700,4.242443
1927.0337,4.264301
1928.8973,4.289522
1930.7610,4.328156
1932.6247,4.319058
1934.4883,4.249798
1936.3520,4.235497
1938.2157,4.260078
1940.0793,4.307154
1941.9430,4.302382
1943.8067,4.290327
1945.6704,4.311241
1947.5340,4.332110
1949.3977,4.333650
1951.2614,4.342986
1953.1250,4.370234
1954.9887,4.381738
1956.8524,4.359328
1958.7160,4.365716
1960.5797,4.343601
1962.4434,4.340855
1964.3070,4.356864
1966.1707,4.332696
1968.0344,4.293861
1969.8980,4.313367
1971.7617,4.312142
1973.6254,4.314050
1975.4891,4.329609
1977.3527,4.318802
1979.2164,4.319204
1981.0801,4.339083
1982.9437,4.349120
1984.8074,4.347348
1986.6711,4.357480
1988.5347,4.391198
1990.3984,4.380147
1992.2621,4.357443
1994.1257,4.373136
1995.9894,4.422494
1997.8531,4.429939
1999.7167,4.448893
2001.5804,4.460866
2003.4441,4.486380
2005.3078,4.522836
2007.1714,4.555707
2009.0351,4.563387
2010.8988,4.593472
2012.7624,4.650164
2014.6261,4.699435
2016.4898,4.746211
2018.3534,4.755305
2020.2171,4.777021
2022.0808,4.824895
2023.9444,4.819048
2025.8081,4.840934
2027.6718,4.875338
2029.5355,4.912083
2031.3991,4.924694
2033.2628,4.965243
2035.1265,5.011853
2036.9901,5.060986
2038.8538,5.086642
2040.7175,5.143064
2042.5811,5.207732
2044.4448,5.250835
2046.3085,5.275466
2048.1721,5.304244
2050.0358,5.320193
2051.8995,5.348985
2053.7631,5.386636
2055.6268,5.433170
2057.4905,5.444830
2059.3542,5.451839
2061.2178,5.456821
2063.0815,5.482813
2064.9452,5.479127
2066.8088,5.500746
2068.6725,5.490643
2070.5362,5.487847
2072.3998,5.515271
2074.2635,5.563522
2076.1272,5.608364
2077.9908,5.566949
2079.8545,5.539072
2081.7182,5.590452
2083.5819,5.634729
2085.4455,5.653653
2087.3092,5.620193
2089.1729,5.589845
2091.0365,5.604441
2092.9002,5.657490
2094.7639,5.649320
2096.6275,5.620356
2098.4912,5.659880
2100.3549,5.684345
2102.2185,5.679267
2104.0822,5.672016
2105.9459,5.665613
2107.8095,5.696504
2109.6732,5.702675
2111.5369,5.682093
2113.4006,5.679276
2115.2642,5.709144
2117.1279,5.724394
2118.9916,5.711583
2120.8552,5.664547
2122.7189,5.683037
2124.5826,5.725338
2126.4462,5.714785
2128.3099,5.691222
2130.1736,5.707910
2132.0372,5.701122
2133.9009,5.670464
2135.7646,5.654531
2137.6282,5.690401
2139.4919,5.716441
2141.3556,5.727875
2143.2193,5.714161
2145.0829,5.721001
2146.9466,5.749420
2148.8103,5.768592
2150.6739,5.779978
2152.5376,5.782482
2154.4013,5.775780
2156.2649,5.819740
2158.1286,5.819964
2159.9923,5.813197
2161.8559,5.863548
2163.7196,5.926105
2165.5833,5.942955
2167.4470,5.915897
2169.3106,5.911005
2171.1743,5.959680
2173.0380,5.966889
2174.9016,5.952200
2176.7653,5.972410
2178.6290,5.990613
2180.4926,5.985015
2182.3563,5.995731
2184.2200,6.011802
2186.0836,6.022698
2187.9473,6.017551
2189.8110,6.016164
2191.6746,6.037648
2193.5383,6.062446
2195.4020,6.052776
2197.2657,6.069295
2199.1293,6.065312
2200.9930,6.075854
2202.8567,6.085689
2204.7203,6.061188
2206.5840,6.023854
2208.4477,6.079436
2210.3113,6.096671
2212.1750,6.084689
2214.0387,6.091334
2215.9023,6.075745
2217.7660,6.060305
2219.6297,6.078880
2221.4934,6.100073
2223.3570,6.110161
2225.2207,6.082362
2227.0844,6.058983
2228.9480,6.063485
2230.8117,6.080692
2232.6754,6.067685
2234.5390,6.070331
2236.4027,6.080106
2238.2664,6.107282
2240.1300,6.089563
2241.9937,6.072929
2243.8574,6.099126
2245.7210,6.128638
2247.5847,6.140776
2249.4484,6.174096
2251.3121,6.195507
2253.1757,6.220003
2255.0394,6.224946
2256.9031,6.207912
2258.7667,6.214182
2260.6304,6.234462
2262.4941,6.254382
2264.3577,6.284949
2266.2214,6.290976
2268.0851,6.315722
2269.9487,6.349250
2271.8124,6.370366
2273.6761,6.376640
2275.5397,6.358234
2277.4034,6.357275
2279.2671,6.409759
2281.1308,6.425003
2282.9944,6.411342
2284.8581,6.376465
2286.7218,6.376515
2288.5854,6.429046
2290.4491,6.456323
2292.3128,6.437814
2294.1764,6.455196
2296.0401,6.472597
2297.9038,6.467400
2299.7674,6.463732
2301.6311,6.463316
2303.4948,6.446873
2305.3585,6.462127
2307.2221,6.431681
2309.0858,6.430788
2310.9495,6.457091
2312.8131,6.453950
2314.6768,6.462558
2316.5405,6.499694
2318.4041,6.457321
2320.2678,6.412011
2322.1315,6.409613
2323.9951,6.457364
2325.8588,6.473489
2327.7225,6.460800
2329.5861,6.462941
2331.4498,6.494709
2333.3135,6.508040
2335.1772,6.481483
2337.0408,6.492791
2338.9045,6.514057
2340.7682,6.502384
2342.6318,6.482812
2344.4955,6.469204
2346.3592,6.523062
2348.2228,6.549383
2350.0865,6.552370
2351.9502,6.558636
2353.8138,6.614891
2355.6775,6.622768
2357.5412,6.594992
2359.4049,6.549343
2361.2685,6.592241
2363.1322,6.629472
2364.9959,6.661616
2366.8595,6.677546
2368.7232,6.663990
2370.5869,6.678093
2372.4505,6.707447
2374.3142,6.686346
2376.1779,6.670198
2378.0415,6.652619
2379.9052,6.691867
2381.7689,6.736540
2383.6325,6.746047
2385.4962,6.708237
2387.3599,6.736931
2389.2236,6.773685
2391.0872,6.755545
2392.9509,6.736101
2394.8146,6.761092
2396.6782,6.767525
2398.5419,6.771587
2400.4056,6.767873
2402.2692,6.766676
2404.1329,6.743737
2405.9966,6.746499
2407.8602,6.779668
2409.7239,6.825439
2411.5876,6.832057
2413.4512,6.800687
2415.3149,6.741230
2417.1786,6.741245
2419.0423,6.746206
2420.9059,6.751620
2422.7696,6.765660
2424.6333,6.793112
2426.4969,6.796877
2428.3606,6.795350
2430.2243,6.773028
2432.0879,6.786883
2433.9516,6.819283
2435.8153,6.832042
2437.6789,6.793568
2439.5426,6.769899
2441.4063,6.762225
2443.2700,6.754025
2445.1336,6.761633
2446.9973,6.749585
2448.8610,6.731707
2450.7246,6.754014
2452.5883,6.738110
2454.4520,6.737961
2456.3156,6.721923
2458.1793,6.724799
2460.0430,6.725521
2461.9066,6.693271
2463.7703,6.682101
2465.6340,6.676343
2467.4976,6.636113
2469.3613,6.627658
2471.2250,6.597783
2473.0887,6.578763
2474.9523,6.523347
2476.8160,6.474429
2478.6797,6.446705
2480.5433,6.421019
2482.4070,6.386290
2484.2707,6.334966
2486.1343,6.317031
2487.9980,6.322266
2489.8617,6.285417
2491.7253,6.207294
2493.5890,6.106365
2495.4527,6.040243
2497.3164,5.962962
2499.1800,5.920714
2501.0437,5.883643
2502.9074,5.832468
2504.7710,5.785001
2506.6347,5.742959
2508.4984,5.711665
2510.3620,5.706453
2512.2257,5.694319
2514.0894,5.663522
2515.9530,5.660997
2517.8167,5.700204
2519.6804,5.701954
2521.5440,5.696162
2523.4077,5.719395
2525.2714,5.744822
2527.1351,5.777721
2528.9987,5.823236
2530.8624,5.821874
2532.7261,5.831750
2534.5897,5.866364
2536.4534,5.901597
2538.3171,5.918499
2540.1807,5.939597
2542.0444,5.975386
2543.9081,6.023501
2545.7717,6.048507
2547.6354,6.063291
2549.4991,6.050693
2551.3627,6.081390
2553.2264,6.143833
2555.0901,6.200917
2556.9538,6.210431
2558.8174,6.225706
2560.6811,6.255314
2562.5448,6.271756
2564.4084,6.233305
2566.2721,6.232379
2568.1358,6.273507
2569.9994,6.351947
2571.8631,6.399817
2573.7268,6.390433
2575.5904,6.399199
2577.4541,6.421358
2579.3178,6.431750
2581.1815,6.478086
2583.0451,6.482385
2584.9088,6.473187
2586.7725,6.486161
2588.6361,6.511192
2590.4998,6.527705
2592.3635,6.530322
2594.2271,6.561883
2596.0908,6.586009
2597.9545,6.583140
2599.8181,6.563522
2601.6818,6.524607
2603.5455,6.526690
2605.4091,6.529465
2607.2728,6.523264
2609.1365,6.514955
2611.0002,6.497707
2612.8638,6.491346
2614.7275,6.504146
2616.5912,6.549212
2618.4548,6.572050
2620.3185,6.529674
2622.1822,6.556002
2624.0458,6.589030
2625.9095,6.592704
2627.7732,6.648766
2629.6368,6.747207
2631.5005,6.737727
2633.3642,6.738060
2635.2279,6.758209
2637.0915,6.787222
2638.9552,6.841537
2640.8189,6.900037
2642.6825,6.907519
2644.5462,6.903459
2646.4099,6.912915
2648.2735,6.971612
2650.1372,7.038521
2652.0009,7.034328
2653.8645,7.016858
2655.7282,7.091337
2657.5919,7.111400
2659.4555,7.113561
2661.3192,7.112643
2663.1829,7.102355
2665.0466,7.153510
2666.9102,7.215898
2668.7739,7.188126
2670.6376,7.194241
2672.5012,7.188457
2674.3649,7.195997
2676.2286,7.217695
2678.0922,7.188088
2679.9559,7.161811
2681.8196,7.196956
2683.6832,7.214710
2685.5469,7.228577
2687.4106,7.234095
2689.2742,7.249552
2691.1379,7.251126
2693.0016,7.203739
2694.8653,7.151804
2696.7289,7.193697
2698.5926,7.245097
2700.4563,7.279095
2702.3199,7.261896
2704.1836,7.228900
2706.0473,7.199379
2707.9109,7.189682
2709.7746,7.224779
2711.6383,7.245973
2713.5019,7.231528
2715.3656,7.236995
2717.2293,7.218338
2719.0930,7.219622
2720.9566,7.237062
2722.8203,7.242940
2724.6840,7.263188
2726.5476,7.240562
2728.4113,7.220904
2730.2750,7.260023
2732.1386,7.241169
2734.0023,7.180202
2735.8660,7.154549
2737.7296,7.221746
2739.5933,7.248649
2741.4570,7.202056
2743.3206,7.185447
2745.1843,7.207081
2747.0480,7.176615
2748.9117,7.138165
2750.7753,7.150400
2752.6390,7.163188
2754.5027,7.138849
2756.3663,7.149348
2758.2300,7.145983
2760.0937,7.116828
2761.9573,7.108016
2763.8210,7.112570
2765.6847,7.131341
2767.5483,7.131732
2769.4120,7.096304
2771.2757,7.123463
2773.1394,7.140801
2775.0030,7.094728
2776.8667,7.077593
2778.7304,7.064887
2780.5940,7.038885
2782.4577,7.049009
2784.3214,7.021289
2786.1850,6.978567
2788.0487,6.961936
2789.9124,6.919890
2791.7760,6.898098
2793.6397,6.964816
2795.5034,7.017248
2797.3670,6.972077
2799.2307,6.864806
2801.0944,6.855441
2802.9581,6.875330
2804.8217,6.845285
2806.6854,6.795144
2808.5491,6.813161
2810.4127,6.846317
2812.2764,6.805842
2814.1401,6.733887
2816.0037,6.687183
2817.8674,6.664018
2819.7311,6.672037
2821.5947,6.711043
2823.4584,6.730042
2825.3221,6.685765
2827.1857,6.638065
2829.0494,6.605464
2830.9131,6.584701
2832.7768,6.560052
2834.6404,6.551826
2836.5041,6.535131
2838.3678,6.504401
2840.2314,6.440129
2842.0951,6.417988
2843.9588,6.432277
2845.8224,6.455505
2847.6861,6.450645
2849.5498,6.385324
2851.4134,6.306429
2853.2771,6.310665
2855.1408,6.310761
2857.0045,6.276306
2858.8681,6.253725
2860.7318,6.213319
2862.5955,6.211796
2864.4591,6.252798
2866.3228,6.254281
2868.1865,6.232226
2870.0501,6.168242
2871.9138,6.136734
2873.7775,6.174063
2875.6411,6.161177
2877.5048,6.072781
2879.3685,6.052766
2881.2321,6.052958
2883.0958,6.031858
2884.9595,6.046980
2886.8232,6.098101
2888.6868,6.159104
2890.5505,6.182782
2892.4142,6.145160
2894.2778,6.129625
2896.1415,6.148894
2898.0052,6.148753
2899.8688,6.109262
2901.7325,6.110527
2903.5962,6.125876
2905.4598,6.134919
2907.3235,6.136429
2909.1872,6.142401
2911.0509,6.145795
2912.9145,6.146707
2914.7782,6.148853
2916.6419,6.133020
2918.5055,6.133714
2920.3692,6.128660
2922.2329,6.122228
2924.0965,6.100399
2925.9602,6.054528
2927.8239,6.083799
2929.6875,6.126470
2931.5512,6.135292
2933.4149,6.113196
2935.2785,6.075031
2937.1422,6.095895
2939.0059,6.145393
2940.8696,6.132511
2942.7332,6.121410
2944.5969,6.112153
2946.4606,6.065501
2948.3242,6.018608
2950.1879,6.037755
2952.0516,6.029910
2953.9152,5.962171
2955.7789,5.935757
2957.6426,5.973945
2959.5062,5.975138
2961.3699,5.975978
2963.2336,5.965201
2965.0972,5.918244
2966.9609,5.916647
2968.8246,5.934787
2970.6883,5.897971
2972.5519,5.864883
2974.4156,5.903114
2976.2793,5.957927
2978.1429,5.965629
2980.0066,5.888888
2981.8703,5.818429
2983.7339,5.830125
2985.5976,5.832922
2987.4613,5.815305
2989.3249,5.809196
2991.1886,5.811577
2993.0523,5.766046
2994.9160,5.722245
2996.7796,5.724872
2998.6433,5.764533
3000.5070,5.799205
3002.3706,5.813944
3004.2343,5.816014
3006.0980,5.788449
3007.9616,5.789511
3009.8253,5.834500
3011.6890,5.825677
3013.5526,5.764823
3015.4163,5.745727
3017.2800,5.770507
3019.1436,5.776992
3021.0073,5.753528
3022.8710,5.794476
3024.7347,5.873423
3026.5983,5.857031
3028.4620,5.820518
3030.3257,5.810045
3032.1893,5.822129
3034.0530,5.857603
3035.9167,5.883175
3037.7803,5.860267
3039.6440,5.825538
3041.5077,5.791481
3043.3713,5.796794
3045.2350,5.831268
3047.0987,5.826744
3048.9624,5.838303
3050.8260,5.878123
3052.6897,5.877861
3054.5534,5.832933
3056.4170,5.779763
3058.2807,5.810812
3060.1444,5.834620
3062.0080,5.797985
3063.8717,5.802848
3065.7354,5.781514
3067.5990,5.784714
3069.4627,5.829445
3071.3264,5.800701
3073.1900,5.796580
3075.0537,5.837106
3076.9174,5.832697
3078.7811,5.850453
3080.6447,5.878539
3082.5084,5.857233
3084.3721,5.853011
3086.2357,5.873162
3088.0994,5.852842
3089.9631,5.841585
3091.8267,5.883280
3093.6904,5.864682
3095.5541,5.784915
3097.4177,5.749314
3099.2814,5.774755
3101.1451,5.772837
3103.0087,5.728673
3104.8724,5.724624
3106.7361,5.756408
3108.5998,5.788188
3110.4634,5.768007
3112.3271,5.716506
3114.1908,5.752522
3116.0544,5.754041
3117.9181,5.701132
3119.7818,5.687229
3121.6454,5.658722
3123.5091,5.669141
3125.3728,5.718332
3127.2364,5.729751
3129.1001,5.635315
3130.9638,5.575574
3132.8275,5.613159
3134.6911,5.581279
3136.5548,5.531056
3138.4185,5.575449
3140.2821,5.607598
3142.1458,5.578649
3144.0095,5.543073
3145.8731,5.503849
3147.7368,5.564862
3149.6005,5.633931
3151.4641,5.532006
3153.3278,5.431237
3155.1915,5.433166
3157.0551,5.491283
3158.9188,5.500332
3160.7825,5.473377
3162.6462,5.483993
3164.5098,5.482822
3166.3735,5.483371
3168.2372,5.484455
3170.1008,5.450363
3171.9645,5.400822
3173.8282,5.368932
3175.6918,5.398796
3177.5555,5.387588
3179.4192,5.316246
3181.2828,5.317460
3183.1465,5.362429
3185.0102,5.332852
3186.8739,5.300401
3188.7375,5.319940
3190.6012,5.308982
3192.4649,5.319239
3194.3285,5.337070
3196.1922,5.303495
3198.0559,5.276491
3199.9195,5.294578
3201.7832,5.309438
3203.6469,5.253233
3205.5105,5.226164
3207.3742,5.186540
3209.2379,5.164737
3211.1015,5.238199
3212.9652,5.227961
3214.8289,5.156357
3216.6926,5.183319
3218.5562,5.183491
3220.4199,5.084995
3222.2836,5.004432
3224.1472,5.064720
3226.0109,5.148339
3227.8746,5.110887
3229.7382,5.082488
3231.6019,5.087922
3233.4656,5.051013
3235.3292,5.013025
3237.1929,5.003047
3239.0566,5.040485
3240.9202,4.984379
3242.7839,4.905709
3244.6476,4.967988
3246.5113,4.995058
3248.3749,4.928519
3250.2386,4.937013
3252.1023,4.962687
3253.9659,4.975220
3255.8296,4.988967
3257.6933,4.951469
3259.5569,4.919260
3261.4206,4.942387
3263.2843,4.944606
3265.1479,4.921083
3267.0116,4.891965
3268.8753,4.869514
3270.7390,4.895375
3272.6026,4.935566
3274.4663,4.895223
3276.3300,4.881798
3278.1936,4.812946
3280.0573,4.757452
3281.9210,4.831592
3283.7846,4.871198
3285.6483,4.814822
3287.5120,4.800178
3289.3756,4.835175
3291.2393,4.884413
3293.1030,4.879693
3294.9666,4.834038
3296.8303,4.835030
3298.6940,4.819722
3300.5577,4.736266
3302.4213,4.748119
3304.2850,4.775786
3306.1487,4.776771
3308.0123,4.837388
3309.8760,4.885640
3311.7397,4.856805
3313.6033,4.773644
3315.4670,4.749576
3317.3307,4.762253
3319.1943,4.741768
3321.0580,4.805605
3322.9217,4.786977
3324.7854,4.737960
3326.6490,4.799132
3328.5127,4.817255
3330.3764,4.765130
3332.2400,4.739496
3334.1037,4.728702
3335.9674,4.687598
3337.8310,4.619640
3339.6947,4.647880
3341.5584,4.723203
3343.4220,4.774867
3345.2857,4.740939
3347.1494,4.688306
3349.0130,4.751896
3350.8767,4.812696
3352.7404,4.755082
3354.6041,4.703098
3356.4677,4.727809
3358.3314,4.756777
3360.1951,4.720724
3362.0587,4.745414
3363.9224,4.776233
3365.7861,4.777581
3367.6497,4.787620
3369.5134,4.729315
3371.3771,4.644371
3373.2407,4.727068
3375.1044,4.768160
3376.9681,4.749167
3378.8317,4.715011
3380.6954,4.663832
3382.5591,4.693635
3384.4228,4.695393
3386.2864,4.602323
3388.1501,4.684967
3390.0138,4.739048
3391.8774,4.720693
3393.7411,4.719341
3395.6048,4.692462
3397.4684,4.756026
3399.3321,4.805150
3401.1958,4.727367
3403.0594,4.752451
3404.9231,4.778497
3406.7868,4.677025
3408.6505,4.604038
3410.5141,4.755846
3412.3778,4.823373
3414.2415,4.701511
3416.1051,4.630790
3417.9688,4.747819
3419.8325,4.825011
3421.6961,4.787644
3423.5598,4.796579
3425.4235,4.868074
3427.2871,4.812953
3429.1508,4.814486
3431.0145,4.855217
3432.8781,4.768603
3434.7418,4.762572
3436.6055,4.796720
3438.4692,4.762485
3440.3328,4.821335
3442.1965,4.907693
3444.0602,4.925485
3445.9238,4.859441
3447.7875,4.863979
3449.6512,4.948472
3451.5148,4.949954
3453.3785,4.925233
3455.2422,4.929112
3457.1058,4.899703
3458.9695,4.935461
3460.8332,4.904863
3462.6969,4.799680
3464.5605,4.798827
3466.4242,4.936646
3468.2879,4.995748
3470.1515,4.991839
3472.0152,4.944562
3473.8789,4.878334
3475.7425,4.872884
3477.6062,4.921709
3479.4699,4.925007
3481.3335,4.929884
3483.1972,4.951714
3485.0609,4.891095
3486.9245,4.961743
3488.7882,5.118865
3490.6519,5.077695
3492.5156,5.013951
3494.3792,4.987840
3496.2429,5.020783
3498.1066,5.022334
3499.9702,5.065284
3501.8339,5.091072
3503.6976,5.011928
3505.5612,5.019773
3507.4249,5.080692
3509.2886,4.976783
3511.1522,4.966645
3513.0159,5.098351
3514.8796,5.167504
3516.7432,5.177077
3518.6069,5.177856
3520.4706,5.093348
3522.3343,5.119301
3524.1979,5.101530
3526.0616,5.054032
3527.9253,5.029792
3529.7889,5.073980
3531.6526,5.076565
3533.5163,5.101430
3535.3799,5.129633
3537.2436,5.117699
3539.1073,5.102055
3540.9709,5.095650
3542.8346,5.091456
3544.6983,5.070372
3546.5620,5.057027
3548.4256,5.084171
3550.2893,5.056399
3552.1530,5.057389
3554.0166,5.084910
3555.8803,5.075386
3557.7440,4.974233
3559.6076,4.930949
3561.4713,4.879039
3563.3350,4.905727
3565.1986,4.907356
3567.0623,4.929355
3568.9260,4.878397
3570.7896,4.837968
3572.6533,4.781063
3574.5170,4.734385
3576.3807,4.640164
3578.2443,4.557020
3580.1080,4.545322
3581.9717,4.520247
3583.8353,4.420590
3585.6990,4.388352
3587.5627,4.190726
3589.4263,4.077379
3591.2900,4.097837
3593.1537,4.109641
3595.0173,4.015266
3596.8810,3.916653
3598.7447,3.846837
3600.6084,3.797505
3602.4720,3.608612
3604.3357,3.542733
3606.1994,3.438435
3608.0630,3.314523
3609.9267,3.270646
3611.7904,3.274875
3613.6540,3.174470
3615.5177,3.119472
3617.3814,3.114927
3619.2450,3.056063
3621.1087,2.995600
3622.9724,2.927320
3624.8360,2.859821
3626.6997,2.879474
3628.5634,2.855076
3630.4271,2.804605
3632.2907,2.867580
3634.1544,2.991172
3636.0181,3.086128
3637.8817,3.118898
3639.7454,3.088700
3641.6091,3.113376
3643.4727,3.175223
3645.3364,3.205462
3647.2001,3.226649
3649.0637,3.273263
3650.9274,3.289714
3652.7911,3.272135
3654.6547,3.250869
3656.5184,3.447763
3658.3821,3.606764
3660.2458,3.646747
3662.1094,3.697556
3663.9731,3.837378
3665.8368,3.979299
3667.7004,4.057119
3669.5641,4.147386
3671.4278,4.324982
3673.2914,4.399785
3675.1551,4.596627
3677.0188,4.901741
3678.8824,5.046273
3680.7461,5.063818
3682.6098,5.180916
3684.4735,5.264544
3686.3371,5.245303
3688.2008,5.234157
3690.0645,5.328663
3691.9281,5.304927
3693.7918,5.328001
3695.6555,5.421742
3697.5191,5.464897
3699.3828,5.575523
3701.2465,5.831861
3703.1101,6.112386
3704.9738,6.415378
3706.8375,6.609319
3708.7011,6.810246
3710.5648,6.899142
3712.4285,7.098374
3714.2922,7.266891
3716.1558,7.300354
3718.0195,7.406033
3719.8832,7.568798
3721.7468,7.693662
3723.6105,7.843184
3725.4742,7.874529
3727.3378,8.002694
3729.2015,8.079078
3731.0652,8.076605
3732.9288,8.168320
3734.7925,8.367586
3736.6562,8.444605
3738.5199,8.448964
3740.3835,8.448950
3742.2472,8.492662
3744.1109,8.617700
3745.9745,8.804391
3747.8382,8.757016
3749.7019,8.720689
3751.5655,8.780484
3753.4292,8.817565
3755.2929,8.793964
3757.1565,8.699163
3759.0202,8.658163
3760.8839,8.680224
3762.7475,8.620420
3764.6112,8.657526
3766.4749,8.635162
3768.3386,8.646382
3770.2022,8.709886
3772.0659,8.765596
3773.9296,8.708625
3775.7932,8.736631
3777.6569,8.770250
3779.5206,8.788134
3781.3842,8.826107
3783.2479,8.836085
3785.1116,8.742873
3786.9752,8.688274
3788.8389,8.721931
3790.7026,8.824600
3792.5662,8.853253
3794.4299,8.840323
3796.2936,8.780371
3798.1573,8.952318
3800.0209,8.941301
3801.8846,8.854012
3803.7483,8.859856
3805.6119,8.888440
3807.4756,8.858008
3809.3393,8.840514
3811.2029,8.803598
3813.0666,8.892753
3814.9303,9.014057
3816.7939,9.080791
3818.6576,8.978504
3820.5213,8.992469
3822.3850,8.991441
3824.2486,8.936293
3826.1123,8.930325
3827.9760,8.949114
3829.8396,8.899778
3831.7033,8.923717
3833.5670,8.951892
3835.4306,8.997984
3837.2943,9.014949
3839.1580,8.987808
3841.0216,8.984392
3842.8853,9.091189
3844.7490,9.020916
3846.6126,8.918209
3848.4763,8.895005
3850.3400,8.995713
3852.2037,9.133631
3854.0673,9.226554
3855.9310,9.206862
3857.7947,9.132917
3859.6583,9.179977
3861.5220,9.214267
3863.3857,9.007475
3865.2493,8.930925
3867.1130,8.956551
3868.9767,9.021808
3870.8403,9.048829
3872.7040,9.047065
3874.5677,9.134341
3876.4314,9.179931
3878.2950,9.094663
3880.1587,9.131710
3882.0224,9.128317
3883.8860,9.100734
3885.7497,9.070057
3887.6134,9.127898
3889.4770,9.087747
3891.3407,9.077520
3893.2044,9.162582
3895.0680,9.276555
3896.9317,9.195422
3898.7954,9.210205
3900.6590,9.272378
3902.5227,9.231724
3904.3864,9.183637
3906.2501,9.147447
3908.1137,9.083806
3909.9774,9.192055
3911.8411,9.230339
3913.7047,9.200796
3915.5684,9.084280
3917.4321,9.061002
3919.2957,9.080686
3921.1594,9.131178
3923.0231,9.081493
3924.8867,9.122461
3926.7504,9.191966
3928.6141,9.202480
3930.4777,9.169526
3932.3414,9.128469
3934.2051,9.106220
3936.0688,9.061276
3937.9324,9.040241
3939.7961,9.154775
3941.6598,9.121675
3943.5234,9.178850
3945.3871,9.234797
3947.2508,9.174659
3949.1144,9.120454
3950.9781,9.187822
3952.8418,9.170731
3954.7054,9.093885
3956.5691,8.991051
3958.4328,8.986759
3960.2965,9.001089
3962.1601,9.058041
3964.0238,9.116787
3965.8875,9.197195
3967.7511,9.210276
3969.6148,9.217976
3971.4785,9.132695
3973.3421,9.083896
3975.2058,9.051940
3977.0695,9.081627
3978.9331,9.104796
3980.7968,9.157465
3982.6605,9.050200
3984.5241,9.027607
3986.3878,9.120040
3988.2515,9.253571
3990.1152,9.171238
3991.9788,9.110572
3993.8425,9.102532
3995.7062,9.100983
3997.5698,9.022714
3999.4335,9.070464
